Labels,0310_LIFETIME_AAN155_1e-7_EPL375_100KHz_5micro_1024ch_30min_slit2_emi620_5min Argon,
Type,Time Scan,
Comment,,
Start,0.00,
Stop,4995.117200,
Step,4.8828125,
Fixed/Offset, ,
XAxis,Time(ns),
YAxis,Counts,

0.00,0.00000000E+0,
4.8828125,0.00000000E+0,
9.7656250,0.00000000E+0,
14.648438,0.00000000E+0,
19.531250,0.00000000E+0,
24.414063,0.00000000E+0,
29.296875,0.00000000E+0,
34.179688,1.00000000E+0,
39.06250,7.00000000E+0,
43.945313,7.00000000E+0,
48.828125,9.00000000E+0,
53.710938,3.45000000E+2,
58.593750,3.59000000E+2,
63.476563,9.40000000E+1,
68.359375,3.30000000E+1,
73.242188,1.60000000E+1,
78.1250,1.70000000E+1,
83.007813,2.90000000E+1,
87.890625,2.10000000E+1,
92.773438,1.90000000E+1,
97.656250,1.70000000E+1,
102.539060,2.10000000E+1,
107.421880,1.10000000E+1,
112.304690,1.40000000E+1,
117.187500,1.30000000E+1,
122.070310,2.20000000E+1,
126.953130,1.10000000E+1,
131.835940,1.30000000E+1,
136.718750,1.90000000E+1,
141.601560,1.90000000E+1,
146.484380,1.70000000E+1,
151.367190,1.50000000E+1,
156.2500,1.70000000E+1,
161.132810,1.00000000E+1,
166.015630,6.00000000E+0,
170.898440,1.50000000E+1,
175.781250,1.50000000E+1,
180.664060,1.40000000E+1,
185.546880,1.40000000E+1,
190.429690,1.40000000E+1,
195.312500,1.70000000E+1,
200.195310,1.00000000E+1,
205.078130,1.30000000E+1,
209.960940,9.00000000E+0,
214.843750,1.00000000E+1,
219.726560,1.60000000E+1,
224.609380,1.60000000E+1,
229.492190,1.10000000E+1,
234.37500,1.20000000E+1,
239.257810,1.90000000E+1,
244.140630,1.40000000E+1,
249.023440,1.50000000E+1,
253.906250,9.00000000E+0,
258.789060,1.10000000E+1,
263.671880,1.60000000E+1,
268.554690,1.80000000E+1,
273.437500,8.00000000E+0,
278.320310,5.00000000E+0,
283.203130,1.00000000E+1,
288.085940,8.00000000E+0,
292.968750,1.40000000E+1,
297.851560,1.70000000E+1,
302.734380,1.10000000E+1,
307.617190,9.00000000E+0,
312.500,1.30000000E+1,
317.382810,7.00000000E+0,
322.265630,9.00000000E+0,
327.148440,6.00000000E+0,
332.031250,8.00000000E+0,
336.914060,5.00000000E+0,
341.796880,1.50000000E+1,
346.679690,1.30000000E+1,
351.562500,1.10000000E+1,
356.445310,7.00000000E+0,
361.328130,1.60000000E+1,
366.210940,7.00000000E+0,
371.093750,1.10000000E+1,
375.976560,1.20000000E+1,
380.859380,1.30000000E+1,
385.742190,1.50000000E+1,
390.62500,1.00000000E+1,
395.507810,1.40000000E+1,
400.390630,8.00000000E+0,
405.273440,1.70000000E+1,
410.156250,9.00000000E+0,
415.039060,1.70000000E+1,
419.921880,1.10000000E+1,
424.804690,1.30000000E+1,
429.687500,1.40000000E+1,
434.570310,5.00000000E+0,
439.453130,1.00000000E+1,
444.335940,1.20000000E+1,
449.218750,6.00000000E+0,
454.101560,8.00000000E+0,
458.984380,1.20000000E+1,
463.867190,1.00000000E+1,
468.7500,1.40000000E+1,
473.632810,1.00000000E+1,
478.515630,1.00000000E+1,
483.398440,2.00000000E+1,
488.281250,1.20000000E+1,
493.164060,9.00000000E+0,
498.046880,9.00000000E+0,
502.929690,1.20000000E+1,
507.812500,1.20000000E+1,
512.695310,1.70000000E+1,
517.578130,7.00000000E+0,
522.460940,9.00000000E+0,
527.343750,9.00000000E+0,
532.226560,1.10000000E+1,
537.109380,8.00000000E+0,
541.992190,1.40000000E+1,
546.87500,8.00000000E+0,
551.757810,8.00000000E+0,
556.640630,1.00000000E+1,
561.523440,9.00000000E+0,
566.406250,1.70000000E+1,
571.289060,9.00000000E+0,
576.171880,9.00000000E+0,
581.054690,1.60000000E+1,
585.937500,1.00000000E+1,
590.820310,8.00000000E+0,
595.703130,1.20000000E+1,
600.585940,9.00000000E+0,
605.468750,1.00000000E+1,
610.351560,9.00000000E+0,
615.234380,8.00000000E+0,
620.117190,9.00000000E+0,
625.00,1.20000000E+1,
629.882810,1.10000000E+1,
634.765630,7.00000000E+0,
639.648440,1.10000000E+1,
644.531250,9.00000000E+0,
649.414060,1.20000000E+1,
654.296880,1.00000000E+1,
659.179690,1.00000000E+1,
664.062500,9.00000000E+0,
668.945310,9.00000000E+0,
673.828130,9.00000000E+0,
678.710940,8.00000000E+0,
683.593750,1.10000000E+1,
688.476560,1.10000000E+1,
693.359380,1.10000000E+1,
698.242190,5.00000000E+0,
703.12500,4.00000000E+0,
708.007810,1.30000000E+1,
712.890630,1.10000000E+1,
717.773440,8.00000000E+0,
722.656250,1.10000000E+1,
727.539060,1.50000000E+1,
732.421880,7.00000000E+0,
737.304690,8.00000000E+0,
742.187500,6.00000000E+0,
747.070310,6.00000000E+0,
751.953130,5.00000000E+0,
756.835940,1.30000000E+1,
761.718750,1.00000000E+1,
766.601560,8.00000000E+0,
771.484380,8.00000000E+0,
776.367190,6.00000000E+0,
781.2500,7.00000000E+0,
786.132810,9.00000000E+0,
791.015630,1.00000000E+1,
795.898440,7.00000000E+0,
800.781250,4.00000000E+0,
805.664060,1.50000000E+1,
810.546880,7.00000000E+0,
815.429690,7.00000000E+0,
820.312500,7.00000000E+0,
825.195310,7.00000000E+0,
830.078130,1.60000000E+1,
834.960940,7.00000000E+0,
839.843750,6.00000000E+0,
844.726560,5.00000000E+0,
849.609380,1.10000000E+1,
854.492190,1.10000000E+1,
859.37500,8.00000000E+0,
864.257810,1.30000000E+1,
869.140630,8.00000000E+0,
874.023440,1.20000000E+1,
878.906250,9.00000000E+0,
883.789060,1.10000000E+1,
888.671880,1.30000000E+1,
893.554690,8.00000000E+0,
898.437500,7.00000000E+0,
903.320310,9.00000000E+0,
908.203130,9.00000000E+0,
913.085940,1.30000000E+1,
917.968750,1.00000000E+1,
922.851560,1.30000000E+1,
927.734380,6.00000000E+0,
932.617190,9.00000000E+0,
937.500,1.50000000E+1,
942.382810,1.20000000E+1,
947.265630,1.10000000E+1,
952.148440,7.00000000E+0,
957.031250,1.20000000E+1,
961.914060,9.00000000E+0,
966.796880,1.00000000E+1,
971.679690,7.00000000E+0,
976.562500,7.00000000E+0,
981.445310,4.00000000E+0,
986.328130,1.10000000E+1,
991.210940,7.00000000E+0,
996.093750,7.00000000E+0,
1000.976600,8.00000000E+0,
1005.859400,1.00000000E+1,
1010.742200,3.00000000E+0,
1015.625000,4.00000000E+0,
1020.507800,5.00000000E+0,
1025.390600,6.00000000E+0,
1030.273400,7.00000000E+0,
1035.156300,1.10000000E+1,
1040.039100,4.00000000E+0,
1044.921900,6.00000000E+0,
1049.804700,6.00000000E+0,
1054.687500,1.20000000E+1,
1059.57000,5.00000000E+0,
1064.453100,9.00000000E+0,
1069.335900,3.00000000E+0,
1074.218800,7.00000000E+0,
1079.101600,6.00000000E+0,
1083.984400,8.00000000E+0,
1088.867200,5.00000000E+0,
1093.75000,6.00000000E+0,
1098.632800,5.00000000E+0,
1103.515600,8.00000000E+0,
1108.398400,4.00000000E+0,
1113.281300,1.00000000E+1,
1118.164100,3.00000000E+0,
1123.046900,9.00000000E+0,
1127.93000,7.00000000E+0,
1132.812500,1.10000000E+1,
1137.695300,9.00000000E+0,
1142.578100,7.00000000E+0,
1147.460900,1.00000000E+1,
1152.343800,1.00000000E+1,
1157.226600,9.00000000E+0,
1162.109400,9.00000000E+0,
1166.992200,1.00000000E+1,
1171.875000,7.00000000E+0,
1176.757800,7.00000000E+0,
1181.640600,1.20000000E+1,
1186.523400,8.00000000E+0,
1191.406300,3.00000000E+0,
1196.289100,7.00000000E+0,
1201.171900,4.00000000E+0,
1206.054700,4.00000000E+0,
1210.937500,5.00000000E+0,
1215.82000,1.40000000E+1,
1220.703100,5.00000000E+0,
1225.585900,6.00000000E+0,
1230.468800,1.20000000E+1,
1235.351600,6.00000000E+0,
1240.234400,6.00000000E+0,
1245.117200,5.00000000E+0,
1250.00,1.00000000E+1,
1254.882800,5.00000000E+0,
1259.765600,1.00000000E+1,
1264.648400,8.00000000E+0,
1269.531300,8.00000000E+0,
1274.414100,6.00000000E+0,
1279.296900,3.00000000E+0,
1284.18000,4.00000000E+0,
1289.062500,7.00000000E+0,
1293.945300,7.00000000E+0,
1298.828100,3.00000000E+0,
1303.710900,7.00000000E+0,
1308.593800,1.30000000E+1,
1313.476600,1.40000000E+1,
1318.359400,4.00000000E+0,
1323.242200,5.00000000E+0,
1328.125000,7.00000000E+0,
1333.007800,1.10000000E+1,
1337.890600,9.00000000E+0,
1342.773400,1.10000000E+1,
1347.656300,1.20000000E+1,
1352.539100,1.00000000E+1,
1357.421900,5.00000000E+0,
1362.304700,1.00000000E+1,
1367.187500,7.00000000E+0,
1372.07000,6.00000000E+0,
1376.953100,4.00000000E+0,
1381.835900,1.40000000E+1,
1386.718800,7.00000000E+0,
1391.601600,6.00000000E+0,
1396.484400,3.00000000E+0,
1401.367200,1.00000000E+1,
1406.25000,1.20000000E+1,
1411.132800,3.00000000E+0,
1416.015600,7.00000000E+0,
1420.898400,5.00000000E+0,
1425.781300,5.00000000E+0,
1430.664100,9.00000000E+0,
1435.546900,8.00000000E+0,
1440.43000,7.00000000E+0,
1445.312500,8.00000000E+0,
1450.195300,9.00000000E+0,
1455.078100,6.00000000E+0,
1459.960900,1.00000000E+1,
1464.843800,8.00000000E+0,
1469.726600,9.00000000E+0,
1474.609400,1.50000000E+1,
1479.492200,7.00000000E+0,
1484.375000,4.00000000E+0,
1489.257800,5.00000000E+0,
1494.140600,1.60000000E+1,
1499.023400,4.00000000E+0,
1503.906300,1.20000000E+1,
1508.789100,7.00000000E+0,
1513.671900,6.00000000E+0,
1518.554700,6.00000000E+0,
1523.437500,8.00000000E+0,
1528.32000,8.00000000E+0,
1533.203100,1.20000000E+1,
1538.085900,1.10000000E+1,
1542.968800,7.00000000E+0,
1547.851600,1.20000000E+1,
1552.734400,9.00000000E+0,
1557.617200,5.00000000E+0,
1562.5000,7.00000000E+0,
1567.382800,1.30000000E+1,
1572.265600,1.10000000E+1,
1577.148400,1.10000000E+1,
1582.031300,8.00000000E+0,
1586.914100,1.30000000E+1,
1591.796900,6.00000000E+0,
1596.68000,5.00000000E+0,
1601.562500,6.00000000E+0,
1606.445300,1.20000000E+1,
1611.328100,1.60000000E+1,
1616.210900,1.20000000E+1,
1621.093800,7.00000000E+0,
1625.976600,8.00000000E+0,
1630.859400,6.00000000E+0,
1635.742200,9.00000000E+0,
1640.625000,8.00000000E+0,
1645.507800,9.00000000E+0,
1650.390600,9.00000000E+0,
1655.273400,8.00000000E+0,
1660.156300,5.00000000E+0,
1665.039100,1.10000000E+1,
1669.921900,6.00000000E+0,
1674.804700,4.00000000E+0,
1679.687500,1.00000000E+1,
1684.57000,1.10000000E+1,
1689.453100,1.10000000E+1,
1694.335900,8.00000000E+0,
1699.218800,8.00000000E+0,
1704.101600,4.00000000E+0,
1708.984400,8.00000000E+0,
1713.867200,7.00000000E+0,
1718.75000,2.00000000E+0,
1723.632800,4.00000000E+0,
1728.515600,6.00000000E+0,
1733.398400,8.00000000E+0,
1738.281300,5.00000000E+0,
1743.164100,6.00000000E+0,
1748.046900,7.00000000E+0,
1752.93000,7.00000000E+0,
1757.812500,8.00000000E+0,
1762.695300,7.00000000E+0,
1767.578100,8.00000000E+0,
1772.460900,5.00000000E+0,
1777.343800,7.00000000E+0,
1782.226600,6.00000000E+0,
1787.109400,7.00000000E+0,
1791.992200,7.00000000E+0,
1796.875000,7.00000000E+0,
1801.757800,1.30000000E+1,
1806.640600,9.00000000E+0,
1811.523400,1.10000000E+1,
1816.406300,6.00000000E+0,
1821.289100,6.00000000E+0,
1826.171900,1.30000000E+1,
1831.054700,7.00000000E+0,
1835.937500,1.00000000E+0,
1840.82000,9.00000000E+0,
1845.703100,7.00000000E+0,
1850.585900,1.00000000E+1,
1855.468800,1.00000000E+1,
1860.351600,7.00000000E+0,
1865.234400,6.00000000E+0,
1870.117200,7.00000000E+0,
1875.000,5.00000000E+0,
1879.882800,6.00000000E+0,
1884.765600,1.30000000E+1,
1889.648400,7.00000000E+0,
1894.531300,8.00000000E+0,
1899.414100,7.00000000E+0,
1904.296900,6.00000000E+0,
1909.18000,6.00000000E+0,
1914.062500,6.00000000E+0,
1918.945300,1.00000000E+1,
1923.828100,3.00000000E+0,
1928.710900,7.00000000E+0,
1933.593800,6.00000000E+0,
1938.476600,4.00000000E+0,
1943.359400,5.00000000E+0,
1948.242200,7.00000000E+0,
1953.125000,9.00000000E+0,
1958.007800,8.00000000E+0,
1962.890600,5.00000000E+0,
1967.773400,5.00000000E+0,
1972.656300,9.00000000E+0,
1977.539100,4.00000000E+0,
1982.421900,6.00000000E+0,
1987.304700,7.00000000E+0,
1992.187500,1.50000000E+1,
1997.07000,4.00000000E+0,
2001.953100,1.00000000E+1,
2006.835900,9.00000000E+0,
2011.718800,7.00000000E+0,
2016.601600,4.00000000E+0,
2021.484400,6.00000000E+0,
2026.367200,7.00000000E+0,
2031.25000,6.00000000E+0,
2036.132800,9.00000000E+0,
2041.015600,4.00000000E+0,
2045.898400,2.00000000E+0,
2050.781300,8.00000000E+0,
2055.664100,1.00000000E+0,
2060.546900,7.00000000E+0,
2065.43000,8.00000000E+0,
2070.312500,7.00000000E+0,
2075.195300,7.00000000E+0,
2080.078100,4.00000000E+0,
2084.960900,7.00000000E+0,
2089.843800,7.00000000E+0,
2094.726600,8.00000000E+0,
2099.609400,9.00000000E+0,
2104.492200,3.00000000E+0,
2109.375000,4.00000000E+0,
2114.257800,5.00000000E+0,
2119.140600,9.00000000E+0,
2124.023400,5.00000000E+0,
2128.906300,9.00000000E+0,
2133.789100,7.00000000E+0,
2138.671900,1.20000000E+1,
2143.554700,8.00000000E+0,
2148.437500,8.00000000E+0,
2153.32000,6.00000000E+0,
2158.203100,7.00000000E+0,
2163.085900,9.00000000E+0,
2167.968800,6.00000000E+0,
2172.851600,6.00000000E+0,
2177.734400,8.00000000E+0,
2182.617200,1.10000000E+1,
2187.5000,8.00000000E+0,
2192.382800,4.00000000E+0,
2197.265600,5.00000000E+0,
2202.148400,7.00000000E+0,
2207.031300,5.00000000E+0,
2211.914100,4.00000000E+0,
2216.796900,1.00000000E+1,
2221.68000,1.10000000E+1,
2226.562500,5.00000000E+0,
2231.445300,7.00000000E+0,
2236.328100,4.00000000E+0,
2241.210900,1.10000000E+1,
2246.093800,6.00000000E+0,
2250.976600,8.00000000E+0,
2255.859400,1.10000000E+1,
2260.742200,6.00000000E+0,
2265.625000,7.00000000E+0,
2270.507800,1.40000000E+1,
2275.390600,4.00000000E+0,
2280.273400,7.00000000E+0,
2285.156300,7.00000000E+0,
2290.039100,7.00000000E+0,
2294.921900,8.00000000E+0,
2299.804700,6.00000000E+0,
2304.687500,1.50000000E+1,
2309.57000,6.00000000E+0,
2314.453100,6.00000000E+0,
2319.335900,1.00000000E+0,
2324.218800,3.00000000E+0,
2329.101600,9.00000000E+0,
2333.984400,9.00000000E+0,
2338.867200,3.00000000E+0,
2343.75000,8.00000000E+0,
2348.632800,7.00000000E+0,
2353.515600,1.10000000E+1,
2358.398400,8.00000000E+0,
2363.281300,1.00000000E+1,
2368.164100,9.00000000E+0,
2373.046900,1.10000000E+1,
2377.93000,1.50000000E+1,
2382.812500,9.00000000E+0,
2387.695300,5.00000000E+0,
2392.578100,5.00000000E+0,
2397.460900,5.00000000E+0,
2402.343800,9.00000000E+0,
2407.226600,1.30000000E+1,
2412.109400,9.00000000E+0,
2416.992200,5.00000000E+0,
2421.875000,6.00000000E+0,
2426.757800,1.00000000E+1,
2431.640600,6.00000000E+0,
2436.523400,9.00000000E+0,
2441.406300,1.00000000E+1,
2446.289100,4.00000000E+0,
2451.171900,2.00000000E+0,
2456.054700,7.00000000E+0,
2460.937500,4.00000000E+0,
2465.82000,6.00000000E+0,
2470.703100,6.00000000E+0,
2475.585900,2.00000000E+0,
2480.468800,9.00000000E+0,
2485.351600,9.00000000E+0,
2490.234400,5.00000000E+0,
2495.117200,9.00000000E+0,
2500.00,7.00000000E+0,
2504.882800,7.00000000E+0,
2509.765600,5.00000000E+0,
2514.648400,7.00000000E+0,
2519.531300,5.00000000E+0,
2524.414100,9.00000000E+0,
2529.296900,5.00000000E+0,
2534.18000,1.10000000E+1,
2539.062500,8.00000000E+0,
2543.945300,4.00000000E+0,
2548.828100,7.00000000E+0,
2553.710900,6.00000000E+0,
2558.593800,1.10000000E+1,
2563.476600,3.00000000E+0,
2568.359400,6.00000000E+0,
2573.242200,1.30000000E+1,
2578.125000,1.20000000E+1,
2583.007800,8.00000000E+0,
2587.890600,6.00000000E+0,
2592.773400,1.20000000E+1,
2597.656300,7.00000000E+0,
2602.539100,1.00000000E+1,
2607.421900,1.00000000E+1,
2612.304700,8.00000000E+0,
2617.187500,8.00000000E+0,
2622.07000,1.00000000E+1,
2626.953100,7.00000000E+0,
2631.835900,4.00000000E+0,
2636.718800,6.00000000E+0,
2641.601600,5.00000000E+0,
2646.484400,7.00000000E+0,
2651.367200,1.10000000E+1,
2656.25000,5.00000000E+0,
2661.132800,3.00000000E+0,
2666.015600,7.00000000E+0,
2670.898400,1.20000000E+1,
2675.781300,9.00000000E+0,
2680.664100,8.00000000E+0,
2685.546900,1.00000000E+1,
2690.43000,1.40000000E+1,
2695.312500,1.50000000E+1,
2700.195300,8.00000000E+0,
2705.078100,7.00000000E+0,
2709.960900,6.00000000E+0,
2714.843800,6.00000000E+0,
2719.726600,5.00000000E+0,
2724.609400,1.40000000E+1,
2729.492200,1.10000000E+1,
2734.375000,5.00000000E+0,
2739.257800,5.00000000E+0,
2744.140600,4.00000000E+0,
2749.023400,8.00000000E+0,
2753.906300,1.20000000E+1,
2758.789100,1.40000000E+1,
2763.671900,1.50000000E+1,
2768.554700,8.00000000E+0,
2773.437500,3.00000000E+0,
2778.32000,7.00000000E+0,
2783.203100,9.00000000E+0,
2788.085900,9.00000000E+0,
2792.968800,5.00000000E+0,
2797.851600,6.00000000E+0,
2802.734400,1.00000000E+1,
2807.617200,1.10000000E+1,
2812.5000,1.00000000E+1,
2817.382800,6.00000000E+0,
2822.265600,8.00000000E+0,
2827.148400,1.00000000E+1,
2832.031300,1.00000000E+1,
2836.914100,7.00000000E+0,
2841.796900,1.10000000E+1,
2846.68000,3.00000000E+0,
2851.562500,9.00000000E+0,
2856.445300,7.00000000E+0,
2861.328100,3.00000000E+0,
2866.210900,3.00000000E+0,
2871.093800,1.10000000E+1,
2875.976600,8.00000000E+0,
2880.859400,5.00000000E+0,
2885.742200,4.00000000E+0,
2890.625000,7.00000000E+0,
2895.507800,5.00000000E+0,
2900.390600,7.00000000E+0,
2905.273400,8.00000000E+0,
2910.156300,5.00000000E+0,
2915.039100,1.00000000E+1,
2919.921900,1.00000000E+1,
2924.804700,4.00000000E+0,
2929.687500,7.00000000E+0,
2934.57000,6.00000000E+0,
2939.453100,1.10000000E+1,
2944.335900,6.00000000E+0,
2949.218800,5.00000000E+0,
2954.101600,1.00000000E+0,
2958.984400,1.30000000E+1,
2963.867200,1.00000000E+1,
2968.75000,5.00000000E+0,
2973.632800,8.00000000E+0,
2978.515600,6.00000000E+0,
2983.398400,1.00000000E+1,
2988.281300,5.00000000E+0,
2993.164100,1.20000000E+1,
2998.046900,2.00000000E+0,
3002.93000,5.00000000E+0,
3007.812500,6.00000000E+0,
3012.695300,1.00000000E+1,
3017.578100,6.00000000E+0,
3022.460900,4.00000000E+0,
3027.343800,8.00000000E+0,
3032.226600,7.00000000E+0,
3037.109400,6.00000000E+0,
3041.992200,5.00000000E+0,
3046.875000,3.00000000E+0,
3051.757800,1.30000000E+1,
3056.640600,7.00000000E+0,
3061.523400,5.00000000E+0,
3066.406300,6.00000000E+0,
3071.289100,1.00000000E+1,
3076.171900,6.00000000E+0,
3081.054700,8.00000000E+0,
3085.937500,1.20000000E+1,
3090.82000,3.00000000E+0,
3095.703100,4.00000000E+0,
3100.585900,4.00000000E+0,
3105.468800,7.00000000E+0,
3110.351600,6.00000000E+0,
3115.234400,6.00000000E+0,
3120.117200,7.00000000E+0,
3125.000,1.10000000E+1,
3129.882800,9.00000000E+0,
3134.765600,5.00000000E+0,
3139.648400,7.00000000E+0,
3144.531300,9.00000000E+0,
3149.414100,8.00000000E+0,
3154.296900,8.00000000E+0,
3159.18000,1.20000000E+1,
3164.062500,9.00000000E+0,
3168.945300,4.00000000E+0,
3173.828100,8.00000000E+0,
3178.710900,5.00000000E+0,
3183.593800,1.00000000E+1,
3188.476600,4.00000000E+0,
3193.359400,1.40000000E+1,
3198.242200,5.00000000E+0,
3203.125000,1.10000000E+1,
3208.007800,8.00000000E+0,
3212.890600,1.00000000E+1,
3217.773400,6.00000000E+0,
3222.656300,5.00000000E+0,
3227.539100,8.00000000E+0,
3232.421900,7.00000000E+0,
3237.304700,1.00000000E+1,
3242.187500,5.00000000E+0,
3247.07000,6.00000000E+0,
3251.953100,9.00000000E+0,
3256.835900,7.00000000E+0,
3261.718800,1.00000000E+1,
3266.601600,1.00000000E+1,
3271.484400,3.00000000E+0,
3276.367200,5.00000000E+0,
3281.25000,5.00000000E+0,
3286.132800,8.00000000E+0,
3291.015600,5.00000000E+0,
3295.898400,4.00000000E+0,
3300.781300,1.30000000E+1,
3305.664100,3.00000000E+0,
3310.546900,6.00000000E+0,
3315.43000,9.00000000E+0,
3320.312500,6.00000000E+0,
3325.195300,8.00000000E+0,
3330.078100,3.00000000E+0,
3334.960900,5.00000000E+0,
3339.843800,6.00000000E+0,
3344.726600,8.00000000E+0,
3349.609400,1.10000000E+1,
3354.492200,9.00000000E+0,
3359.375000,7.00000000E+0,
3364.257800,5.00000000E+0,
3369.140600,1.20000000E+1,
3374.023400,8.00000000E+0,
3378.906300,9.00000000E+0,
3383.789100,6.00000000E+0,
3388.671900,6.00000000E+0,
3393.554700,6.00000000E+0,
3398.437500,9.00000000E+0,
3403.32000,5.00000000E+0,
3408.203100,7.00000000E+0,
3413.085900,4.00000000E+0,
3417.968800,5.00000000E+0,
3422.851600,1.00000000E+1,
3427.734400,5.00000000E+0,
3432.617200,4.00000000E+0,
3437.5000,3.00000000E+0,
3442.382800,9.00000000E+0,
3447.265600,4.00000000E+0,
3452.148400,5.00000000E+0,
3457.031300,7.00000000E+0,
3461.914100,1.80000000E+1,
3466.796900,4.00000000E+0,
3471.68000,8.00000000E+0,
3476.562500,8.00000000E+0,
3481.445300,7.00000000E+0,
3486.328100,2.00000000E+0,
3491.210900,7.00000000E+0,
3496.093800,7.00000000E+0,
3500.976600,7.00000000E+0,
3505.859400,7.00000000E+0,
3510.742200,1.00000000E+0,
3515.625000,7.00000000E+0,
3520.507800,5.00000000E+0,
3525.390600,7.00000000E+0,
3530.273400,6.00000000E+0,
3535.156300,8.00000000E+0,
3540.039100,4.00000000E+0,
3544.921900,3.00000000E+0,
3549.804700,7.00000000E+0,
3554.687500,1.40000000E+1,
3559.57000,1.00000000E+1,
3564.453100,9.00000000E+0,
3569.335900,9.00000000E+0,
3574.218800,8.00000000E+0,
3579.101600,5.00000000E+0,
3583.984400,7.00000000E+0,
3588.867200,6.00000000E+0,
3593.75000,5.00000000E+0,
3598.632800,9.00000000E+0,
3603.515600,5.00000000E+0,
3608.398400,7.00000000E+0,
3613.281300,8.00000000E+0,
3618.164100,9.00000000E+0,
3623.046900,8.00000000E+0,
3627.93000,5.00000000E+0,
3632.812500,8.00000000E+0,
3637.695300,1.10000000E+1,
3642.578100,6.00000000E+0,
3647.460900,9.00000000E+0,
3652.343800,7.00000000E+0,
3657.226600,3.00000000E+0,
3662.109400,8.00000000E+0,
3666.992200,9.00000000E+0,
3671.875000,3.00000000E+0,
3676.757800,4.00000000E+0,
3681.640600,6.00000000E+0,
3686.523400,6.00000000E+0,
3691.406300,7.00000000E+0,
3696.289100,8.00000000E+0,
3701.171900,6.00000000E+0,
3706.054700,1.20000000E+1,
3710.937500,5.00000000E+0,
3715.82000,1.30000000E+1,
3720.703100,8.00000000E+0,
3725.585900,8.00000000E+0,
3730.468800,2.00000000E+0,
3735.351600,4.00000000E+0,
3740.234400,5.00000000E+0,
3745.117200,6.00000000E+0,
3750.00,8.00000000E+0,
3754.882800,1.40000000E+1,
3759.765600,6.00000000E+0,
3764.648400,9.00000000E+0,
3769.531300,5.00000000E+0,
3774.414100,6.00000000E+0,
3779.296900,8.00000000E+0,
3784.18000,9.00000000E+0,
3789.062500,9.00000000E+0,
3793.945300,8.00000000E+0,
3798.828100,6.00000000E+0,
3803.710900,5.00000000E+0,
3808.593800,3.00000000E+0,
3813.476600,4.00000000E+0,
3818.359400,6.00000000E+0,
3823.242200,7.00000000E+0,
3828.125000,6.00000000E+0,
3833.007800,9.00000000E+0,
3837.890600,1.20000000E+1,
3842.773400,6.00000000E+0,
3847.656300,5.00000000E+0,
3852.539100,9.00000000E+0,
3857.421900,1.10000000E+1,
3862.304700,9.00000000E+0,
3867.187500,1.40000000E+1,
3872.07000,9.00000000E+0,
3876.953100,7.00000000E+0,
3881.835900,7.00000000E+0,
3886.718800,1.00000000E+1,
3891.601600,5.00000000E+0,
3896.484400,7.00000000E+0,
3901.367200,6.00000000E+0,
3906.25000,1.00000000E+0,
3911.132800,7.00000000E+0,
3916.015600,1.00000000E+1,
3920.898400,7.00000000E+0,
3925.781300,1.00000000E+1,
3930.664100,1.00000000E+1,
3935.546900,6.00000000E+0,
3940.43000,6.00000000E+0,
3945.312500,1.10000000E+1,
3950.195300,1.00000000E+1,
3955.078100,6.00000000E+0,
3959.960900,2.00000000E+0,
3964.843800,3.00000000E+0,
3969.726600,7.00000000E+0,
3974.609400,8.00000000E+0,
3979.492200,7.00000000E+0,
3984.375000,5.00000000E+0,
3989.257800,1.00000000E+1,
3994.140600,5.00000000E+0,
3999.023400,6.00000000E+0,
4003.906300,7.00000000E+0,
4008.789100,8.00000000E+0,
4013.671900,6.00000000E+0,
4018.554700,6.00000000E+0,
4023.437500,7.00000000E+0,
4028.32000,9.00000000E+0,
4033.203100,6.00000000E+0,
4038.085900,7.00000000E+0,
4042.968800,3.00000000E+0,
4047.851600,8.00000000E+0,
4052.734400,7.00000000E+0,
4057.617200,7.00000000E+0,
4062.5000,7.00000000E+0,
4067.382800,4.00000000E+0,
4072.265600,5.00000000E+0,
4077.148400,4.00000000E+0,
4082.031300,1.30000000E+1,
4086.914100,9.00000000E+0,
4091.796900,6.00000000E+0,
4096.68000,6.00000000E+0,
4101.562500,7.00000000E+0,
4106.445300,9.00000000E+0,
4111.328100,4.00000000E+0,
4116.210900,7.00000000E+0,
4121.093800,5.00000000E+0,
4125.976600,1.50000000E+1,
4130.859400,7.00000000E+0,
4135.742200,6.00000000E+0,
4140.625000,8.00000000E+0,
4145.507800,1.20000000E+1,
4150.390600,1.10000000E+1,
4155.273400,4.00000000E+0,
4160.156300,1.20000000E+1,
4165.039100,7.00000000E+0,
4169.921900,9.00000000E+0,
4174.804700,3.00000000E+0,
4179.687500,4.00000000E+0,
4184.57000,1.10000000E+1,
4189.453100,1.10000000E+1,
4194.335900,8.00000000E+0,
4199.218800,4.00000000E+0,
4204.101600,1.00000000E+1,
4208.984400,6.00000000E+0,
4213.867200,8.00000000E+0,
4218.75000,1.10000000E+1,
4223.632800,9.00000000E+0,
4228.515600,5.00000000E+0,
4233.398400,5.00000000E+0,
4238.281300,9.00000000E+0,
4243.164100,4.00000000E+0,
4248.046900,1.00000000E+1,
4252.93000,1.10000000E+1,
4257.812500,1.10000000E+1,
4262.695300,6.00000000E+0,
4267.578100,8.00000000E+0,
4272.460900,6.00000000E+0,
4277.343800,4.00000000E+0,
4282.226600,5.00000000E+0,
4287.109400,1.00000000E+1,
4291.992200,5.00000000E+0,
4296.875000,4.00000000E+0,
4301.757800,9.00000000E+0,
4306.640600,7.00000000E+0,
4311.523400,7.00000000E+0,
4316.406300,4.00000000E+0,
4321.289100,1.10000000E+1,
4326.171900,7.00000000E+0,
4331.054700,8.00000000E+0,
4335.937500,8.00000000E+0,
4340.82000,5.00000000E+0,
4345.703100,8.00000000E+0,
4350.585900,9.00000000E+0,
4355.468800,7.00000000E+0,
4360.351600,2.00000000E+0,
4365.234400,5.00000000E+0,
4370.117200,3.00000000E+0,
4375.000,6.00000000E+0,
4379.882800,4.00000000E+0,
4384.765600,5.00000000E+0,
4389.648400,5.00000000E+0,
4394.531300,6.00000000E+0,
4399.414100,1.30000000E+1,
4404.296900,3.00000000E+0,
4409.18000,6.00000000E+0,
4414.062500,7.00000000E+0,
4418.945300,1.00000000E+1,
4423.828100,1.00000000E+1,
4428.710900,7.00000000E+0,
4433.593800,7.00000000E+0,
4438.476600,7.00000000E+0,
4443.359400,1.00000000E+1,
4448.242200,1.20000000E+1,
4453.125000,7.00000000E+0,
4458.007800,7.00000000E+0,
4462.890600,6.00000000E+0,
4467.773400,1.00000000E+1,
4472.656300,8.00000000E+0,
4477.539100,2.00000000E+0,
4482.421900,7.00000000E+0,
4487.304700,1.60000000E+1,
4492.187500,5.00000000E+0,
4497.07000,5.00000000E+0,
4501.953100,8.00000000E+0,
4506.835900,4.00000000E+0,
4511.718800,7.00000000E+0,
4516.601600,9.00000000E+0,
4521.484400,8.00000000E+0,
4526.367200,4.00000000E+0,
4531.25000,7.00000000E+0,
4536.132800,6.00000000E+0,
4541.015600,8.00000000E+0,
4545.898400,8.00000000E+0,
4550.781300,3.00000000E+0,
4555.664100,9.00000000E+0,
4560.546900,9.00000000E+0,
4565.43000,8.00000000E+0,
4570.312500,4.00000000E+0,
4575.195300,4.00000000E+0,
4580.078100,1.00000000E+1,
4584.960900,1.00000000E+1,
4589.843800,5.00000000E+0,
4594.726600,5.00000000E+0,
4599.609400,5.00000000E+0,
4604.492200,9.00000000E+0,
4609.375000,7.00000000E+0,
4614.257800,5.00000000E+0,
4619.140600,1.00000000E+1,
4624.023400,5.00000000E+0,
4628.906300,1.20000000E+1,
4633.789100,4.00000000E+0,
4638.671900,4.00000000E+0,
4643.554700,9.00000000E+0,
4648.437500,6.00000000E+0,
4653.32000,8.00000000E+0,
4658.203100,1.00000000E+1,
4663.085900,8.00000000E+0,
4667.968800,9.00000000E+0,
4672.851600,1.10000000E+1,
4677.734400,5.00000000E+0,
4682.617200,5.00000000E+0,
4687.5000,5.00000000E+0,
4692.382800,6.00000000E+0,
4697.265600,6.00000000E+0,
4702.148400,6.00000000E+0,
4707.031300,9.00000000E+0,
4711.914100,7.00000000E+0,
4716.796900,1.00000000E+1,
4721.68000,5.00000000E+0,
4726.562500,6.00000000E+0,
4731.445300,6.00000000E+0,
4736.328100,6.00000000E+0,
4741.210900,1.00000000E+1,
4746.093800,5.00000000E+0,
4750.976600,1.10000000E+1,
4755.859400,7.00000000E+0,
4760.742200,8.00000000E+0,
4765.625000,4.00000000E+0,
4770.507800,5.00000000E+0,
4775.390600,4.00000000E+0,
4780.273400,5.00000000E+0,
4785.156300,8.00000000E+0,
4790.039100,6.00000000E+0,
4794.921900,4.00000000E+0,
4799.804700,5.00000000E+0,
4804.687500,5.00000000E+0,
4809.57000,8.00000000E+0,
4814.453100,6.00000000E+0,
4819.335900,1.10000000E+1,
4824.218800,8.00000000E+0,
4829.101600,7.00000000E+0,
4833.984400,7.00000000E+0,
4838.867200,6.00000000E+0,
4843.75000,7.00000000E+0,
4848.632800,6.00000000E+0,
4853.515600,1.20000000E+1,
4858.398400,9.00000000E+0,
4863.281300,2.00000000E+0,
4868.164100,4.00000000E+0,
4873.046900,1.10000000E+1,
4877.93000,8.00000000E+0,
4882.812500,9.00000000E+0,
4887.695300,5.00000000E+0,
4892.578100,6.00000000E+0,
4897.460900,8.00000000E+0,
4902.343800,9.00000000E+0,
4907.226600,6.00000000E+0,
4912.109400,5.00000000E+0,
4916.992200,6.00000000E+0,
4921.875000,6.00000000E+0,
4926.757800,8.00000000E+0,
4931.640600,6.00000000E+0,
4936.523400,5.00000000E+0,
4941.406300,7.00000000E+0,
4946.289100,7.00000000E+0,
4951.171900,4.00000000E+0,
4956.054700,4.00000000E+0,
4960.937500,9.00000000E+0,
4965.82000,1.00000000E+1,
4970.703100,5.00000000E+0,
4975.585900,8.00000000E+0,
4980.468800,5.00000000E+0,
4985.351600,8.00000000E+0,
4990.234400,1.00000000E+0,
4995.117200,1.30000000E+1,
